File: Calibration/XRD_TRIMDAC_CAL/dacs.dat
0  0 0 0 9
3  28 22 33 63
6  17 34 37 63
9  19 33 37 63
12  37 49 63 63
15  36 39 51 63
18  20 39 54 63
21  31 42 63 63
24  33 25 57 63
27  24 34 48 63
30  28 28 51 63
33  52 32 49 63
36  53 37 63 63
39  63 62 63 63
42  63 56 63 63
45  63 41 61 63
48  40 32 45 63
51  47 37 47 63
54  35 7 32 63
57  28 24 42 61
60  0 0 2 38
63  11 1 19 49
66  57 63 63 63
69  20 51 63 63
72  9 34 54 63
75  20 38 63 63
78  19 44 63 63
81  48 49 63 63
84  29 35 63 63
87  5 23 63 63
90  31 45 63 63
93  9 31 47 63
96  23 0 29 45
99  48 24 46 63
102  63 33 51 63
105  36 18 48 63
108  5 0 15 37
111  30 7 29 59
114  11 10 0 46
117  25 5 22 53
120  21 0 34 43
123  45 23 46 63
126  40 34 52 63
129  24 19 35 20
132  9 9 26 25
135  13 0 18 10
138  23 23 32 21
141  16 0 21 13
144  32 26 39 30
147  18 9 42 17
150  0 0 3 3
153  21 17 47 28
156  19 19 39 13
159  55 42 57 46
162  42 20 38 18
165  41 35 47 31
168  18 10 15 3
171  49 18 36 18
174  45 26 48 40
177  50 37 45 40
180  49 25 34 22
183  25 17 26 28
186  22 20 33 19
189  40 25 32 20
192  40 25 37 41
195  25 3 17 25
198  45 23 32 48
201  50 11 28 21
204  29 22 32 35
207  35 10 31 34
210  63 56 50 61
213  32 9 23 34
216  51 16 38 29
219  43 19 46 42
222  56 32 48 42
225  1 2 2 0
228  25 0 0 10
231  28 13 20 9
234  46 20 23 11
237  32 46 44 24
240  49 30 34 36
243  36 23 15 13
246  32 25 29 7
249  10 0 15 0
252  34 27 36 14
255  40 27 37 26
258  43 29 53 46
261  24 21 38 21
264  48 42 53 46
267  34 22 47 44
270  36 22 59 38
273  57 36 63 49
276  48 24 63 43
279  35 20 50 37
282  50 51 63 62
285  44 32 58 49
288  0 13 15 17
291  6 15 24 13
294  6 46 40 39
297  0 4 0 0
300  0 15 8 6
303  0 16 0 7
306  18 33 32 26
309  9 18 13 14
312  34 42 36 45
315  11 20 19 24
318  53 63 49 61
321  3 8 40 41
324  63 63 63 63
327  0 0 9 45
330  5 0 23 47
333  0 0 8 31
336  0 0 13 27
339  2 14 35 39
342  0 0 28 45
345  0 0 11 28
348  0 0 7 27
351  0 7 25 47
354  0 3 48 55
357  0 13 46 63
360  0 0 37 61
363  11 13 38 59
366  0 0 39 63
369  63 63 63 63
372  63 63 63 63
375  0 0 26 29
378  0 0 12 37
381  12 20 46 58
384  25 5 37 42
387  22 0 32 50
390  63 63 0 63
393  31 14 58 60
396  5 0 26 29
399  8 0 30 30
402  31 21 57 62
405  43 32 63 63
408  0 0 31 30
411  39 31 58 63
414  31 10 49 39
417  25 30 43 59
420  30 40 30 63
423  23 28 41 60
426  32 41 43 59
429  46 63 52 63
432  26 32 36 63
435  29 42 29 61
438  11 26 29 57
441  54 63 57 63
444  41 51 60 63
447  36 39 39 58
450  30 40 58 63
453  31 41 37 63
456  55 63 63 63
459  41 55 63 63
462  14 42 47 63
465  46 52 56 63
468  49 63 63 63
471  27 63 50 63
474  34 52 50 63
477  40 57 56 63
480  0 0 29 47
483  4 0 28 44
486  0 0 8 31
489  0 0 23 37
492  0 0 24 44
495  0 0 17 42
498  0 0 18 31
501  0 0 23 32
504  0 0 33 47
507  0 0 15 39
510  0 4 38 45
513  9 0 0 5
516  0 0 0 19
519  18 0 0 7
522  6 0 0 11
525  7 0 0 10
528  27 0 0 7
531  6 10 0 12
534  43 0 16 30
537  0 0 0 0
540  63 63 63 63
543  5 0 0 6
546  32 1 7 11
549  8 0 0 4
552  22 0 0 0
555  26 0 0 0
558  41 9 22 22
561  18 0 0 0
564  26 0 0 5
567  31 0 0 0
570  32 0 0 10
573  55 11 18 26
576  37 6 48 50
579  43 0 35 40
582  57 15 47 58
585  29 0 26 33
588  44 0 40 40
591  39 32 53 45
594  47 10 54 56
597  29 11 37 44
600  31 0 23 40
603  53 24 60 58
606  51 19 47 52
609  63 63 63 59
612  59 63 63 38
615  63 63 44 48
618  63 63 63 63
621  57 48 47 42
624  63 63 63 41
627  63 63 63 63
630  63 63 55 61
633  63 63 51 52
636  60 54 47 40
639  63 62 43 46