File: Calibration/XRD_TRIMDAC_CAL/orig_dacs.dat
0  20 0 15 0
3  24 1 27 8
6  27 9 28 12
9  0 0 0 0
12  9 0 2 0
15  25 6 16 4
18  20 0 11 0
21  13 0 31 4
24  23 8 16 10
27  17 0 28 8
30  2 0 0 0
33  38 21 41 18
36  33 24 29 28
39  32 13 30 24
42  39 26 28 25
45  43 24 40 36
48  18 10 26 5
51  21 3 14 10
54  12 0 10 13
57  16 7 19 7
60  38 21 23 18
63  30 8 30 8
66  24 11 26 13
69  33 18 30 27
72  36 42 56 32
75  16 4 18 7
78  20 17 25 5
81  28 20 23 16
84  11 0 14 0
87  16 14 20 5
90  22 8 23 9
93  20 7 22 2
96  21 15 20 18
99  10 3 11 0
102  17 10 20 16
105  21 0 17 0
108  11 10 16 0
111  4 0 9 0
114  8 0 8 0
117  29 11 19 12
120  29 16 31 15
123  0 0 0 0
126  21 4 7 0
129  19 14 21 25
132  13 4 23 0
135  18 6 24 15
138  18 10 21 11
141  19 15 10 4
144  30 6 15 10
147  28 18 26 5
150  24 17 24 19
153  18 10 10 9
156  18 3 6 1
159  0 0 6 0
162  37 41 31 36
165  38 35 44 40
168  31 47 43 27
171  39 37 38 36
174  23 37 30 31
177  44 42 36 36
180  35 33 28 35
183  42 40 25 22
186  32 37 38 36
189  44 38 38 43
192  42 36 37 38
195  34 33 24 35
198  21 20 32 22
201  48 41 38 48
204  26 40 38 37
207  40 45 25 39
210  26 36 25 32
213  30 31 31 28
216  42 63 43 61
219  25 37 24 27
222  39 47 55 48
225  9 21 14 25
228  56 54 45 62
231  29 29 36 36
234  29 35 27 35
237  35 48 28 39
240  42 38 43 46
243  38 37 35 42
246  19 28 18 24
249  31 46 35 32
252  32 33 23 30
255  46 49 50 49
258  45 40 33 38
261  11 21 16 28
264  47 43 42 51
267  22 19 17 15
270  34 39 42 41
273  33 32 27 29
276  12 29 21 21
279  28 24 28 34
282  11 21 18 21
285  8 16 4 6
288  45 54 55 49
291  38 36 29 34
294  49 48 48 48
297  63 63 59 62
300  16 29 34 36
303  30 30 22 34
306  28 35 32 33
309  32 44 38 40
312  37 40 39 40
315  19 16 13 22
318  40 52 45 45
321  36 40 38 36
324  28 35 40 35
327  40 48 35 41
330  23 14 22 29
333  32 34 42 36
336  42 51 39 40
339  46 62 58 63
342  32 56 36 44
345  12 22 19 19
348  62 58 62 51
351  54 55 49 54
354  25 32 17 33
357  23 29 14 24
360  33 41 37 43
363  45 40 46 32
366  46 53 54 55
369  46 52 32 51
372  28 37 42 38
375  10 24 22 17
378  33 46 41 36
381  43 43 37 35
384  52 45 39 45
387  18 32 15 25
390  28 37 24 26
393  34 29 32 21
396  25 30 24 35
399  23 44 10 24
402  49 51 44 44
405  40 51 27 50
408  39 36 32 45
411  26 26 32 21
414  40 45 38 42
417  40 47 40 45
420  40 47 37 35
423  27 24 25 13
426  44 43 39 49
429  56 63 50 62
432  24 27 4 23
435  7 26 24 18
438  25 32 29 29
441  34 28 32 38
444  39 29 32 33
447  17 22 18 13
450  29 32 30 41
453  11 16 18 30
456  27 26 24 25
459  53 38 31 43
462  9 19 4 17
465  21 17 16 24
468  12 15 12 17
471  19 13 11 16
474  18 30 27 26
477  21 35 24 19
480  33 26 31 39
483  14 14 12 25
486  19 19 15 23
489  39 36 36 34
492  31 18 16 26
495  31 31 26 33
498  48 57 52 50
501  20 31 38 19
504  37 47 41 46
507  14 30 20 27
510  21 32 32 45
513  48 63 61 60
516  63 63 63 63
519  62 63 61 63
522  39 46 34 48
525  47 45 54 56
528  54 63 60 59
531  53 60 55 63
534  48 55 52 54
537  54 60 52 60
540  44 47 44 47
543  37 45 51 49
546  18 15 19 26
549  50 51 47 52
552  17 16 8 33
555  33 34 39 39
558  27 28 18 35
561  35 42 37 40
564  29 37 42 36
567  32 36 24 42
570  11 20 7 16
573  40 46 46 41
576  63 63 51 63
579  21 38 34 36
582  36 30 31 33
585  34 45 42 44
588  55 48 41 48
591  30 28 36 35
594  24 28 31 30
597  27 31 20 28
600  28 19 4 17
603  19 36 28 30
606  47 44 45 52
609  16 24 18 21
612  23 22 14 32
615  7 23 1 10
618  15 18 18 25
621  10 26 11 20
624  26 20 12 26
627  23 34 20 30
630  28 39 25 37
633  3 28 6 4
636  10 43 21 26
639  0 0 0 0