File: Calibration/XRD_TRIMDAC_CAL/scan_fits.dat
0  0 1.44 60 0  0 1.44 60 0  0 1.44 60 0  0 1.44 60 0
8  0 1.44 60 0  0 1.44 60 0  0 1.44 60 0  0 1.44 60 0
16  0 1.44 60 0  0 1.44 60 0  0 1.44 60 0  0 1.44 60 0
24  0 1.44 60 0  0 1.44 60 0  0 1.44 60 0  0 1.44 60 0
32  250.116 1.25454 87.0724 -0.0212227  249.999 1.21561 92.0152 -0.165367  249.985 1.25605 85.5541 0.0230027  249.357 1.23502 98.7234 1.17177
40  249.755 1.26823 102.234 0.227815  249.841 1.25239 91.2024 0.37183  250.029 1.25511 91.6529 -0.0743149  250.288 1.25363 85.9535 -0.475324
48  249.373 1.24638 106.533 0.372076  250.272 1.24456 86.4972 -0.290623  249.487 1.24729 107.647 0.4404  250.093 1.23046 92.2457 -0.158141
56  249.967 1.2836 90.7324 0.338142  249.759 1.26303 91.2139 0.0166262  249.746 1.29478 91.457 -0.184112  249.923 1.27539 92.2032 0.221641
64  0 1.44 60 0  0 1.44 60 0  0 1.44 60 0  0 1.44 60 0
72  249.477 1.25455 104.555 0.11864  249.909 1.26053 92.8931 0.120076  249.785 1.28456 96.5937 0.269026  250.224 1.24236 81.8625 -0.239257
80  249.887 1.2296 90.7929 -0.144565  250.052 1.20683 97.01 -0.935283  250.362 1.23735 82.8423 -0.30264  250.452 1.20674 82.1393 -1.19684
88  249.822 1.25847 102.141 0.129193  249.924 1.24523 89.4078 0.270386  249.484 1.26589 108.184 0.811892  250.317 1.26299 88.4502 -0.6183
96  0 1.44 60 0  0 1.44 60 0  0 1.44 60 0  0 1.44 60 0
104  0 1.44 60 0  0 1.44 60 0  0 1.44 60 0  0 1.44 60 0
112  0 1.44 60 0  0 1.44 60 0  0 1.44 60 0  0 1.44 60 0
120  0 1.44 60 0  0 1.44 60 0  0 1.44 60 0  0 1.44 60 0
128  250.081 1.26916 88.3152 0.0820666  250.034 1.23621 84.9294 -0.131475  249.989 1.26945 89.9447 0.174145  249.569 1.25397 90.2275 0.523881
136  249.951 1.25909 89.3773 0.237823  249.856 1.2473 90.0806 0.00268384  250.239 1.2612 80.6109 -0.404441  250.347 1.24262 85.3039 -0.684575
144  250.077 1.29144 87.0705 -0.036782  249.827 1.26547 88.4702 0.102729  249.811 1.2799 92.484 -0.0221344  250.114 1.2672 80.9898 -0.315939
152  250.219 1.21395 99.9911 -0.0574764  249.244 1.20426 103.48 1.15553  250.231 1.22833 93.5651 0.248764  249.723 1.19114 82.888 0.869981
160  0 1.44 60 0  0 1.44 60 0  0 1.44 60 0  0 1.44 60 0
168  249.526 1.26708 113.082 1.08144  250.148 1.28732 83.1114 0.383105  249.842 1.28627 89.304 0.200227  250.006 1.25711 89.6025 -0.208784
176  249.599 1.26424 97.5916 0.422528  249.302 1.24303 100.882 1.4137  250.421 1.26547 82.0954 -0.196956  249.765 1.27277 95.6288 0.25199
184  0 1.44 60 0  0 1.44 60 0  0 1.44 60 0  0 1.44 60 0
192  250.106 1.26314 88.3144 0.199527  250.254 1.24639 86.1158 -0.18627  250.094 1.25564 96.1652 0.0885087  250.164 1.25693 86.6505 -0.194683
200  249.885 1.28633 85.6978 0.964149  250.033 1.29672 88.0995 -0.194278  250.128 1.28848 80.2288 0.44113  250.179 1.27057 87.2094 -0.689094
208  249.957 1.24716 92.3764 -0.225315  249.427 1.23426 106.909 0.940968  250.491 1.23536 78.2363 -0.465774  250.024 1.25151 90.9362 -0.0843126
216  249.707 1.28556 93.1637 0.492169  249.947 1.30924 89.8818 -0.1097  249.783 1.28871 90.1177 0.563888  249.794 1.3192 97.9738 0.0849388
224  0 1.44 60 0  0 1.44 60 0  0 1.44 60 0  0 1.44 60 0
232  0 1.44 60 0  0 1.44 60 0  0 1.44 60 0  0 1.44 60 0
240  0 1.44 60 0  0 1.44 60 0  0 1.44 60 0  0 1.44 60 0
248  0 1.44 60 0  0 1.44 60 0  0 1.44 60 0  0 1.44 60 0
256  250.301 1.24178 83.5386 0.106279  250.127 1.25766 83.1175 0.120759  249.48 1.25485 93.0038 0.278961  250.084 1.24632 84.6518 0.164325
264  249.953 1.33524 81.6869 0.0928196  250.007 1.31109 81.9921 0.253121  249.569 1.31588 89.6298 0.362135  250.35 1.32796 75.9394 -0.116203
272  250.382 1.24209 77.2098 0.0153172  249.757 1.22679 89.6552 -0.0452207  250.215 1.23404 95.0662 0.296831  250.108 1.22504 86.7917 -0.156545
280  249.735 1.27151 92.0042 0.0822107  249.763 1.24764 92.9122 0.300301  249.727 1.27307 90.4444 0.339251  249.689 1.25495 89.9419 0.317418
288  0 1.44 60 0  0 1.44 60 0  0 1.44 60 0  0 1.44 60 0
296  0 1.44 60 0  0 1.44 60 0  0 1.44 60 0  0 1.44 60 0
304  0 1.44 60 0  0 1.44 60 0  0 1.44 60 0  0 1.44 60 0
312  0 1.44 60 0  0 1.44 60 0  0 1.44 60 0  0 1.44 60 0
320  249.883 1.27667 83.1268 -0.258941  249.996 1.26955 83.3581 0.361213  249.33 1.27382 100.87 0.306961  249.979 1.25932 93.9228 -0.512519
328  250.276 1.2921 82.4376 -0.0827742  250.013 1.28951 89.5884 0.192155  250.125 1.28913 84.4681 0.047951  249.855 1.291 94.5878 0.494244
336  250.181 1.29248 81.5779 -0.177684  249.761 1.29794 91.5894 0.358864  250.111 1.29684 79.259 -0.606563  250.075 1.2815 85.1423 -0.265192
344  250.06 1.24842 88.6938 -0.287126  249.723 1.25371 101.193 0.450681  249.981 1.2599 98.9147 0.14222  250.147 1.23923 88.0169 -0.150654
352  250.223 1.3401 71.2069 -0.198024  249.912 1.33195 75.996 0.14846  250.208 1.3275 71.6383 -0.182317  250.43 1.33342 67.7912 0.0546623
360  250.525 1.24615 82.633 -0.44024  250.294 1.25645 87.9239 -0.281404  250.09 1.25197 83.9564 -0.266737  249.698 1.24773 95.473 0.934806
368  249.782 1.257 98.3127 0.384712  249.941 1.26086 96.3436 0.25161  250.017 1.27992 97.9176 -0.136489  250.088 1.26028 96.8421 -0.550724
376  250.029 1.30797 83.2309 -0.00816293  249.631 1.30201 90.2561 0.80505  250.181 1.29389 86.1829 0.0207192  250.126 1.29965 81.5163 0.0753796
384  249.784 1.2788 91.557 0.763254  249.807 1.26233 96.8266 0.345383  250.158 1.259 86.8794 -0.150093  250.18 1.26335 84.8055 -0.133431
392  249.676 1.29317 86.928 0.336243  249.89 1.28813 90.1079 -0.0203634  250.241 1.29384 76.131 0.142053  250.203 1.28726 82.7145 -0.240728
400  250.042 1.29134 80.4296 -0.16131  249.969 1.28006 91.5027 0.259275  249.857 1.28036 89.9928 0.279259  250.124 1.28701 84.3114 -0.369592
408  249.818 1.31359 85.8509 0.313402  250.063 1.30255 86.8283 -0.132185  250.164 1.29508 79.01 -0.130069  249.51 1.30582 102.233 0.17467
416  0 1.44 60 0  0 1.44 60 0  0 1.44 60 0  0 1.44 60 0
424  0 1.44 60 0  0 1.44 60 0  0 1.44 60 0  0 1.44 60 0
432  250.124 1.27051 82.7047 -0.0862793  250.378 1.2635 82.2181 -0.730786  250.304 1.26419 79.7436 -0.0125841  250.485 1.26481 79.7876 -0.71201
440  249.9 1.28614 88.0528 0.407858  250.018 1.25763 91.4846 0.0281669  249.716 1.27414 99.3065 0.306233  249.798 1.27528 90.9592 0.233017
448  0 1.44 60 0  0 1.44 60 0  0 1.44 60 0  0 1.44 60 0
456  0 1.44 60 0  0 1.44 60 0  0 1.44 60 0  0 1.44 60 0
464  250.239 1.2464 87.374 -0.193854  249.971 1.24137 92.0305 0.274372  249.736 1.24348 97.7794 0.205237  250.18 1.2444 90.3699 -0.462765
472  0 1.44 60 0  0 1.44 60 0  0 1.44 60 0  0 1.44 60 0
480  0 1.44 60 0  0 1.44 60 0  0 1.44 60 0  0 1.44 60 0
488  249.904 1.29109 86.082 -0.290183  250.04 1.29986 89.5957 -0.200007  249.957 1.29245 92.3096 -0.127343  249.935 1.2906 87.9579 0.446785
496  0 1.44 60 0  0 1.44 60 0  0 1.44 60 0  0 1.44 60 0
504  0 1.44 60 0  0 1.44 60 0  0 1.44 60 0  0 1.44 60 0
512  249.97 1.32205 84.0323 0.20542  249.847 1.3087 87.4449 0.768248  249.75 1.31307 84.9518 -0.086711  249.477 1.31186 95.5644 1.00019
520  250.033 1.30721 80.1449 0.0501757  249.955 1.2819 95.2974 -0.0211696  250.152 1.28881 80.5892 -0.0940777  249.798 1.29517 90.1712 0.117533
528  250.176 1.30391 82.7823 -0.162583  249.841 1.31039 88.3908 0.440718  250.171 1.30989 80.4127 -0.710711  250.124 1.29902 78.1751 -0.406491
536  250.425 1.30323 73.7026 -0.438114  249.951 1.30172 82.0753 0.45876  249.946 1.29288 84.8253 0.150777  249.959 1.28982 87.9449 -0.270147
544  249.345 1.22651 93.1117 0.616509  249.855 1.23056 85.2603 0.30044  249.715 1.22823 83.7215 -0.226625  250.253 1.23369 85.6707 -0.516664
552  250.281 1.28234 85.4602 -0.160249  249.812 1.27177 91.6674 0.174872  249.771 1.26784 91.0978 0.309324  249.941 1.3032 89.6792 0.115296
560  250.356 1.26546 85.6401 -0.291212  250.244 1.30003 82.2789 0.304701  249.998 1.27213 97.6091 0.0227644  250.177 1.28988 83.535 -0.277456
568  250.453 1.26306 88.7248 -0.13957  249.683 1.28583 105.597 0.100638  250.225 1.26244 91.264 -0.0589585  250.068 1.27669 90.3845 -0.00299651
576  249.795 1.327 88.2915 -0.0927367  249.918 1.33146 83.667 0.344075  249.451 1.30395 85.214 0.776025  249.835 1.33146 79.1517 -0.342415
584  249.909 1.28727 94.1574 0.445907  250.113 1.28189 89.4567 -0.357945  249.846 1.28404 100.903 0.167645  249.727 1.28666 96.7605 0.105692
592  249.442 1.3056 102.734 0.379813  250.131 1.28822 85.9417 -0.0690988  249.479 1.30537 103.507 0.323438  250.154 1.31332 89.5069 -0.287182
600  249.979 1.26986 97.4588 -0.11279  249.974 1.26883 92.5032 -0.358334  250.155 1.24593 96.296 -0.116726  250.212 1.25544 97.1789 -0.327414
608  0 1.44 60 0  0 1.44 60 0  0 1.44 60 0  0 1.44 60 0
616  250.005 1.29233 93.8803 -0.0544705  249.66 1.30154 104.519 0.981998  249.865 1.29308 97.6536 0.285354  249.663 1.2911 104.311 0.97344
624  250.122 1.27134 87.9431 0.150295  250.084 1.27381 92.2122 -0.357763  249.624 1.26645 103.846 0.00818299  250.155 1.28504 89.292 0.275305
632  250.233 1.23177 95.6711 -0.00191641  249.611 1.24624 123.903 0.0953002  249.891 1.23931 99.0689 -0.282653  249.996 1.25323 98.1978 -0.0466057
639  245.077 1.16015 117.93 -0.334221  250.028 1.19571 116.151 -0.102042  248.698 1.15821 117.283 -0.159483  249.659 1.16603 131.106 0.527431