File: Calibration/XRD_TRIMDAC_CAL/testCcat
0  32 32 32 32 0  32 32 32 32
3  32 32 32 32 3  32 32 32 32
6  32 32 32 32 6  32 32 32 32
9  32 32 32 32 9  32 32 32 32
12  32 32 32 32 12  32 32 32 32
15  32 32 32 32 15  32 32 32 32
18  32 32 32 32 18  32 32 32 32
21  32 32 32 32 21  32 32 32 32
24  32 32 32 32 24  32 32 32 32
27  32 32 32 32 27  32 32 32 32
30  32 32 32 32 30  32 32 32 32
33  32 32 32 32 33  32 32 32 32
36  32 32 32 32 36  32 32 32 32
39  32 32 32 32 39  32 32 32 32
42  32 32 32 32 42  32 32 32 32
45  32 32 32 32 45  32 32 32 32
48  32 32 32 32 48  32 32 32 32
51  32 32 32 32 51  32 32 32 32
54  32 32 32 32 54  32 32 32 32
57  32 32 32 32 57  32 32 32 32
60  32 32 32 32 60  32 32 32 32
63  32 32 32 32 63  32 32 32 32
66  32 32 32 32 66  32 32 32 32
69  32 32 32 32 69  32 32 32 32
72  32 32 32 32 72  32 32 32 32
75  32 32 32 32 75  32 32 32 32
78  32 32 32 32 78  32 32 32 32
81  32 32 32 32 81  32 32 32 32
84  32 32 32 32 84  32 32 32 32
87  32 32 32 32 87  32 32 32 32
90  32 32 32 32 90  32 32 32 32
93  32 32 32 32 93  32 32 32 32
96  32 32 32 32 96  32 32 32 32
99  32 32 32 32 99  32 32 32 32
102  32 32 32 32 102  32 32 32 32
105  32 32 32 32 105  32 32 32 32
108  32 32 32 32 108  32 32 32 32
111  32 32 32 32 111  32 32 32 32
114  32 32 32 32 114  32 32 32 32
117  32 32 32 32 117  32 32 32 32
120  32 32 32 32 120  32 32 32 32
123  32 32 32 32 123  32 32 32 32
126  32 32 32 32 126  32 32 32 32
129  32 32 32 32 129  32 32 32 32
132  32 32 32 32 132  32 32 32 32
135  32 32 32 32 135  32 32 32 32
138  32 32 32 32 138  32 32 32 32
141  32 32 32 32 141  32 32 32 32
144  32 32 32 32 144  32 32 32 32
147  32 32 32 32 147  32 32 32 32
150  32 32 32 32 150  32 32 32 32
153  32 32 32 32 153  32 32 32 32
156  32 32 32 32 156  32 32 32 32
159  32 32 32 32 159  32 32 32 32
162  32 32 32 32 162  32 32 32 32
165  32 32 32 32 165  32 32 32 32
168  32 32 32 32 168  32 32 32 32
171  32 32 32 32 171  32 32 32 32
174  32 32 32 32 174  32 32 32 32
177  32 32 32 32 177  32 32 32 32
180  32 32 32 32 180  32 32 32 32
183  32 32 32 32 183  32 32 32 32
186  32 32 32 32 186  32 32 32 32
189  32 32 32 32 189  32 32 32 32
192  32 32 32 32 192  32 32 32 32
195  32 32 32 32 195  32 32 32 32
198  32 32 32 32 198  32 32 32 32
201  32 32 32 32 201  32 32 32 32
204  32 32 32 32 204  32 32 32 32
207  32 32 32 32 207  32 32 32 32
210  32 32 32 32 210  32 32 32 32
213  32 32 32 32 213  32 32 32 32
216  32 32 32 32 216  32 32 32 32
219  32 32 32 32 219  32 32 32 32
222  32 32 32 32 222  32 32 32 32
225  32 32 32 32 225  32 32 32 32
228  32 32 32 32 228  32 32 32 32
231  32 32 32 32 231  32 32 32 32
234  32 32 32 32 234  32 32 32 32
237  32 32 32 32 237  32 32 32 32
240  32 32 32 32 240  32 32 32 32
243  32 32 32 32 243  32 32 32 32
246  32 32 32 32 246  32 32 32 32
249  32 32 32 32 249  32 32 32 32
252  32 32 32 32 252  32 32 32 32
255  32 32 32 32 255  32 32 32 32
258  32 32 32 32 258  32 32 32 32
261  32 32 32 32 261  32 32 32 32
264  32 32 32 32 264  32 32 32 32
267  32 32 32 32 267  32 32 32 32
270  32 32 32 32 270  32 32 32 32
273  32 32 32 32 273  32 32 32 32
276  32 32 32 32 276  32 32 32 32
279  32 32 32 32 279  32 32 32 32
282  32 32 32 32 282  32 32 32 32
285  32 32 32 32 285  32 32 32 32
288  32 32 32 32 288  32 32 32 32
291  32 32 32 32 291  32 32 32 32
294  32 32 32 32 294  32 32 32 32
297  32 32 32 32 297  32 32 32 32
300  32 32 32 32 300  32 32 32 32
303  32 32 32 32 303  32 32 32 32
306  32 32 32 32 306  32 32 32 32
309  32 32 32 32 309  32 32 32 32
312  32 32 32 32 312  32 32 32 32
315  32 32 32 32 315  32 32 32 32
318  32 32 32 32 318  32 32 32 32
321  32 32 32 32 321  32 32 32 32
324  32 32 32 32 324  32 32 32 32
327  32 32 32 32 327  32 32 32 32
330  32 32 32 32 330  32 32 32 32
333  32 32 32 32 333  32 32 32 32
336  32 32 32 32 336  32 32 32 32
339  32 32 32 32 339  32 32 32 32
342  32 32 32 32 342  32 32 32 32
345  32 32 32 32 345  32 32 32 32
348  32 32 32 32 348  32 32 32 32
351  32 32 32 32 351  32 32 32 32
354  32 32 32 32 354  32 32 32 32
357  32 32 32 32 357  32 32 32 32
360  32 32 32 32 360  32 32 32 32
363  32 32 32 32 363  32 32 32 32
366  32 32 32 32 366  32 32 32 32
369  32 32 32 32 369  32 32 32 32
372  32 32 32 32 372  32 32 32 32
375  32 32 32 32 375  32 32 32 32
378  32 32 32 32 378  32 32 32 32
381  32 32 32 32 381  32 32 32 32
384  32 32 32 32 384  32 32 32 32
387  32 32 32 32 387  32 32 32 32
390  32 32 32 32 390  32 32 32 32
393  32 32 32 32 393  32 32 32 32
396  32 32 32 32 396  32 32 32 32
399  32 32 32 32 399  32 32 32 32
402  32 32 32 32 402  32 32 32 32
405  32 32 32 32 405  32 32 32 32
408  32 32 32 32 408  32 32 32 32
411  32 32 32 32 411  32 32 32 32
414  32 32 32 32 414  32 32 32 32
417  32 32 32 32 417  32 32 32 32
420  32 32 32 32 420  32 32 32 32
423  32 32 32 32 423  32 32 32 32
426  32 32 32 32 426  32 32 32 32
429  32 32 32 32 429  32 32 32 32
432  32 32 32 32 432  32 32 32 32
435  32 32 32 32 435  32 32 32 32
438  32 32 32 32 438  32 32 32 32
441  32 32 32 32 441  32 32 32 32
444  32 32 32 32 444  32 32 32 32
447  32 32 32 32 447  32 32 32 32
450  32 32 32 32 450  32 32 32 32
453  32 32 32 32 453  32 32 32 32
456  32 32 32 32 456  32 32 32 32
459  32 32 32 32 459  32 32 32 32
462  32 32 32 32 462  32 32 32 32
465  32 32 32 32 465  32 32 32 32
468  32 32 32 32 468  32 32 32 32
471  32 32 32 32 471  32 32 32 32
474  32 32 32 32 474  32 32 32 32
477  32 32 32 32 477  32 32 32 32
480  32 32 32 32 480  32 32 32 32
483  32 32 32 32 483  32 32 32 32
486  32 32 32 32 486  32 32 32 32
489  32 32 32 32 489  32 32 32 32
492  32 32 32 32 492  32 32 32 32
495  32 32 32 32 495  32 32 32 32
498  32 32 32 32 498  32 32 32 32
501  32 32 32 32 501  32 32 32 32
504  32 32 32 32 504  32 32 32 32
507  32 32 32 32 507  32 32 32 32
510  32 32 32 32 510  32 32 32 32
513  32 32 32 32 513  32 32 32 32
516  32 32 32 32 516  32 32 32 32
519  32 32 32 32 519  32 32 32 32
522  32 32 32 32 522  32 32 32 32
525  32 32 32 32 525  32 32 32 32
528  32 32 32 32 528  32 32 32 32
531  32 32 32 32 531  32 32 32 32
534  32 32 32 32 534  32 32 32 32
537  32 32 32 32 537  32 32 32 32
540  32 32 32 32 540  32 32 32 32
543  32 32 32 32 543  32 32 32 32
546  32 32 32 32 546  32 32 32 32
549  32 32 32 32 549  32 32 32 32
552  32 32 32 32 552  32 32 32 32
555  32 32 32 32 555  32 32 32 32
558  32 32 32 32 558  32 32 32 32
561  32 32 32 32 561  32 32 32 32
564  32 32 32 32 564  32 32 32 32
567  32 32 32 32 567  32 32 32 32
570  32 32 32 32 570  32 32 32 32
573  32 32 32 32 573  32 32 32 32
576  32 32 32 32 576  32 32 32 32
579  32 32 32 32 579  32 32 32 32
582  32 32 32 32 582  32 32 32 32
585  32 32 32 32 585  32 32 32 32
588  32 32 32 32 588  32 32 32 32
591  32 32 32 32 591  32 32 32 32
594  32 32 32 32 594  32 32 32 32
597  32 32 32 32 597  32 32 32 32
600  32 32 32 32 600  32 32 32 32
603  32 32 32 32 603  32 32 32 32
606  32 32 32 32 606  32 32 32 32
609  32 32 32 32 609  32 32 32 32
612  32 32 32 32 612  32 32 32 32
615  32 32 32 32 615  32 32 32 32
618  32 32 32 32 618  32 32 32 32
621  32 32 32 32 621  32 32 32 32
624  32 32 32 32 624  32 32 32 32
627  32 32 32 32 627  32 32 32 32
630  32 32 32 32 630  32 32 32 32
633  32 32 32 32 633  32 32 32 32
636  32 32 32 32 636  32 32 32 32
639  32 32 32 32 639  32 32 32 32